  Frequency (cm-1)       Intensity (arb. units)
         0.0                  0.0082
         0.0                  0.0011
         0.0                  0.0051
         0.0                  0.0154
         0.0                  0.0000
         0.0                  0.0000
        68.1                 80.7579
        76.2                  9.8085
       100.6                149.6165
       107.0                 55.9634
       148.6                208.1894
       189.5                196.1264
       206.7                669.9361
       227.2                 59.2133
       232.2                 30.5661
       249.8                  3.9652
       288.3                655.2915
       294.5                  6.8625
       305.8                 78.2556
       364.9                133.2988
       370.4                146.1205
       402.1                 59.8581
       477.5                562.2046
       489.7               1407.5314
       515.8                  3.6272
       559.2                 36.5976
       619.0                 12.8325
       717.1                 18.8055
       745.5                333.4945
       752.9                 27.7508
       772.8                344.9701
       794.6               1406.6114
       819.3                440.0379
       838.0               1242.5111
       847.3                112.2975
       868.7                  8.3646
       892.3               3047.9692
       902.0                556.6791
       928.1                215.2514
       944.9                504.0821
       989.0                 86.6776
       993.6                255.9780
      1009.6                  0.9955
      1020.0                692.4533
      1049.9                 41.5497
      1082.2                 13.1671
      1094.9                680.0959
      1107.6                 22.3276
      1120.2                997.0213
      1130.0                445.2825
      1137.3                  5.0499
      1142.0               2271.7592
      1163.9                  1.9636
      1184.7                 78.8995
      1198.2                282.1034
      1212.8                 39.6617
      1218.3                182.1782
      1255.4                962.2232
      1261.0                  4.2750
      1277.1                241.2862
      1289.5                 57.8576
      1305.1                 45.9768
      1311.8                 96.9550
      1315.4                 49.8217
      1323.3                  4.5298
      1340.9                 28.4134
      1343.4                140.3672
      1359.2               1439.1498
      1363.3                 16.2479
      1372.6                 78.5502
      1375.8               2094.8156
      1384.1               2492.1419
      1395.5                  0.5058
      1404.1                  0.5961
      1413.3                222.9804
      1468.0                 41.2363
      1471.5                 30.5734
      1474.9                 55.6595
      1476.8                 19.1372
      1482.4                192.0385
      1484.2                  7.9966
      1485.6                 14.2404
      1487.6                 79.8078
      1490.4                  3.6619
      1493.0                 19.4444
      1503.5                  6.8991
      1691.7                  2.8187
      2335.3                  2.4452
      2371.8                 39.3094
      3056.9                134.4604
      3064.8                140.7432
      3065.4                 40.2020
      3067.6                 45.0463
      3070.3                269.0378
      3071.5                 35.5913
      3075.1                105.8011
      3081.1                 35.5463
      3083.6                126.7101
      3086.0                 58.0244
      3088.8                 94.8506
      3111.9                952.9552
      3119.3                 45.1506
      3119.8                135.2009
      3126.5               1632.0206
      3128.4               4291.6352
      3130.0               5003.6473
      3141.4                229.5452
      3143.9                 66.6865
      3162.3                 83.1540
      3169.0                462.4355
      3174.9                 93.1979
 
 
 The zero-point energy =     903.88 kJ/mol
