  Frequency (cm-1)       Intensity (arb. units)
         0.0                  0.0102
         0.0                  0.0017
         0.0                  0.0050
         0.0                  0.0088
         0.0                  0.0014
         0.0                  0.0032
        69.6                 69.8683
        76.7                 13.8886
       101.2                159.5551
       107.5                 48.0077
       149.7                227.5347
       195.0                246.4761
       207.1                627.0724
       229.2                 11.7570
       239.4                 64.6372
       251.7                  2.6732
       290.0                667.2594
       297.8                 56.8280
       310.0                 14.9322
       367.8                  2.9203
       377.5                257.0979
       413.8                120.5532
       484.0               1116.8264
       491.4                800.6291
       541.0                  5.4850
       578.0                 47.0047
       717.6                 19.5913
       724.4                  6.6592
       746.8                387.4561
       760.3                 46.7573
       791.7               1824.0901
       834.1                928.7241
       855.2               1223.5061
       874.4                 26.5437
       892.7               2071.5492
       906.3                839.0213
       929.5                751.0225
       975.4                264.2231
       988.6                145.1396
       991.4                  6.1785
       996.3                 12.2620
      1015.9                721.1087
      1049.7                 93.1390
      1057.4                 10.8507
      1085.8                174.6600
      1090.6                 54.1393
      1106.8                577.0335
      1112.8                795.7258
      1128.2                 20.2774
      1132.9                333.2031
      1142.4               2397.8419
      1162.8                144.6988
      1189.7                  8.9260
      1201.2                323.4053
      1210.2                 91.5594
      1252.6                 79.3101
      1255.2               1005.1075
      1270.6                 91.0651
      1286.0                 55.2228
      1293.7                102.8288
      1302.2                  2.8775
      1308.2                163.7036
      1315.4                 20.6628
      1322.6                  3.6970
      1340.2                 27.3903
      1343.1                 82.9564
      1351.3                 67.6266
      1359.4               1502.9061
      1369.8                 57.0071
      1375.9               2102.4836
      1384.0               2406.9713
      1392.4                 30.5096
      1404.1                  0.5492
      1412.5                243.3681
      1434.4                  4.6055
      1468.5                 50.9227
      1472.0                 20.3897
      1475.0                 61.2306
      1477.3                 15.2628
      1482.4                192.5398
      1484.2                  7.3870
      1486.6                 38.5372
      1487.9                 53.5985
      1490.6                  4.6709
      1493.1                 19.5908
      1503.5                  7.0305
      1715.5                  1.4053
      3056.9                134.5597
      3064.8                140.6626
      3065.4                 40.3356
      3067.6                 44.9922
      3070.3                269.0263
      3071.5                 35.9987
      3075.1                106.0467
      3081.1                 35.8469
      3083.6                125.5678
      3086.0                 57.2729
      3088.8                 94.5979
      3111.9                953.1698
      3119.3                 42.9897
      3119.7                136.9443
      3126.5               1613.5845
      3128.4               4305.6711
      3130.0               5006.7426
      3140.9                173.2387
      3142.8                111.5175
      3161.1                 53.4731
      3166.9                 69.3809
      3169.0                428.1704
      3175.3                 66.7893
      3193.9                150.5330
 
 
 The zero-point energy =     920.86 kJ/mol
